VAMAS Surface Chemical Analysis Standard Data Transfer Format 1988 May 4
Specs
PHOIBOS HSA3500 150 R6[HWType 30:14] MCD-9
User
?
1
Created by SpecsLab2, Version 2.57-r18860
NORM
REGULAR
1
3
Cycle
d
zValue
d
Step
d
0
0
0
0
1
N1s
N1s hv50
2024
3
7
9
38
22
0
8
File = C:\2024\Ananina\one scan.xml
Group = N1s hv50
First of group = 1
Analyzer lens = MediumArea:1.5kV
Analyzer slit = 5:7x20\2:open
Scan mode = FixedAnalyzerTransmission
Kinetic energy start = 840.6
Kinetic energy base = 0
XPS
1
0
0
Mg
1253.6
150.000000
0
0
310.000000
0
FAT
50
1
3.76
0
0
0
0
0
N1s

-1
kinetic energy
eV
840.6
0.1
2
counts
d
Transmission
d
pulse counting
1
1
0
0
0
0
0
402
14458
18317
12.0783
12.2218
14857
12.2218
14871
12.221
14985
12.2203
14923
12.2196
14916
12.2188
14842
12.2181
14867
12.2174
14962
12.2167
14836
12.2159
14880
12.2152
14854
12.2145
14904
12.2137
14841
12.213
15003
12.2123
14996
12.2116
14918
12.2108
14896
12.2101
14825
12.2094
15002
12.2086
15043
12.2079
15141
12.2072
15020
12.2065
14835
12.2057
14971
12.205
15233
12.2043
14691
12.2035
14888
12.2028
14945
12.2021
14870
12.2014
15020
12.2006
15000
12.1999
14973
12.1992
14898
12.1985
14876
12.1977
15071
12.197
14987
12.1963
14937
12.1956
15078
12.1948
14963
12.1941
15283
12.1934
15019
12.1927
14936
12.1919
14909
12.1912
14787
12.1905
14895
12.1898
14648
12.189
15054
12.1883
14729
12.1876
15139
12.1869
14980
12.1861
15038
12.1854
15055
12.1847
15084
12.184
14921
12.1832
14929
12.1825
15129
12.1818
15093
12.1811
14849
12.1803
15049
12.1796
15065
12.1789
15030
12.1782
15210
12.1775
15148
12.1767
14848
12.176
15159
12.1753
15095
12.1746
15366
12.1738
15072
12.1731
15244
12.1724
15138
12.1717
15065
12.171
15182
12.1702
15042
12.1695
15320
12.1688
15010
12.1681
15468
12.1674
15234
12.1666
15295
12.1659
15207
12.1652
15211
12.1645
15422
12.1638
15186
12.163
15125
12.1623
15247
12.1616
15356
12.1609
15541
12.1602
15333
12.1594
15278
12.1587
15413
12.158
15207
12.1573
15328
12.1566
15435
12.1558
15527
12.1551
15275
12.1544
15597
12.1537
15614
12.153
15216
12.1523
15334
12.1515
15521
12.1508
15480
12.1501
15346
12.1494
15528
12.1487
15484
12.148
15524
12.1472
15257
12.1465
15627
12.1458
15756
12.1451
15633
12.1444
15723
12.1437
15600
12.1429
15968
12.1422
15874
12.1415
16148
12.1408
16017
12.1401
16061
12.1394
16249
12.1386
16270
12.1379
16360
12.1372
16587
12.1365
16623
12.1358
16609
12.1351
16963
12.1343
16771
12.1336
17122
12.1329
17172
12.1322
17221
12.1315
17520
12.1308
17505
12.1301
17616
12.1294
17545
12.1286
17691
12.1279
17937
12.1272
18045
12.1265
18028
12.1258
17748
12.1251
18064
12.1244
17857
12.1236
17964
12.1229
18317
12.1222
17949
12.1215
18214
12.1208
17834
12.1201
17906
12.1194
17943
12.1187
17960
12.1179
17773
12.1172
17477
12.1165
17623
12.1158
17644
12.1151
17586
12.1144
17290
12.1137
17130
12.113
16801
12.1123
16953
12.1115
16658
12.1108
16607
12.1101
16074
12.1094
16136
12.1087
16199
12.108
15854
12.1073
15638
12.1066
15417
12.1059
15310
12.1052
15342
12.1044
15164
12.1037
15103
12.103
15038
12.1023
14817
12.1016
14993
12.1009
14952
12.1002
14929
12.0995
14990
12.0988
14826
12.0981
14490
12.0974
14656
12.0966
14872
12.0959
14632
12.0952
14766
12.0945
14510
12.0938
14691
12.0931
14696
12.0924
14927
12.0917
14848
12.091
14691
12.0903
14762
12.0896
14555
12.0889
14576
12.0882
14815
12.0875
14710
12.0867
14793
12.086
14458
12.0853
14816
12.0846
14893
12.0839
14575
12.0832
14776
12.0825
14816
12.0818
14678
12.0811
14869
12.0804
14613
12.0797
14959
12.079
14879
12.0783
end of experiment
